WL(nm)	PL	PE(mW/nm)
380	0.0000	0.0062
381	0.0000	0.0081
382	0.0001	0.0183
383	0.0000	0.0123
384	0.0000	0.0121
385	0.0000	0.0089
386	0.0000	0.0051
387	0.0000	0.0048
388	0.0000	0.0023
389	0.0000	0.0072
390	0.0000	0.0083
391	0.0000	0.0050
392	0.0000	0.0057
393	0.0000	0.0058
394	0.0000	0.0051
395	0.0000	0.0046
396	0.0000	0.0044
397	0.0000	0.0053
398	0.0000	0.0063
399	0.0000	0.0047
400	0.0000	0.0036
401	0.0000	0.0057
402	0.0000	0.0031
403	0.0000	0.0039
404	0.0000	0.0020
405	0.0000	0.0024
406	0.0000	0.0021
407	0.0000	0.0025
408	0.0000	0.0038
409	0.0000	0.0027
410	0.0000	0.0036
411	0.0000	0.0033
412	0.0000	0.0015
413	0.0000	0.0041
414	0.0000	0.0026
415	0.0000	0.0049
416	0.0000	0.0003
417	0.0000	0.0036
418	0.0000	0.0031
419	0.0000	0.0039
420	0.0000	0.0014
421	0.0000	0.0021
422	0.0000	0.0018
423	0.0000	0.0021
424	0.0000	0.0022
425	0.0000	0.0024
426	0.0000	0.0030
427	0.0000	0.0024
428	0.0000	0.0026
429	0.0000	0.0019
430	0.0000	0.0027
431	0.0000	0.0027
432	0.0000	0.0012
433	0.0000	0.0032
434	0.0000	0.0022
435	0.0000	0.0016
436	0.0000	0.0019
437	0.0000	0.0029
438	0.0000	0.0020
439	0.0000	0.0024
440	0.0000	0.0034
441	0.0000	0.0030
442	0.0000	0.0018
443	0.0000	0.0037
444	0.0000	0.0015
445	0.0000	0.0019
446	0.0000	0.0015
447	0.0000	0.0031
448	0.0000	0.0023
449	0.0000	0.0026
450	0.0000	0.0022
451	0.0000	0.0017
452	0.0000	0.0022
453	0.0000	0.0042
454	0.0000	0.0019
455	0.0000	0.0019
456	0.0000	0.0029
457	0.0000	0.0017
458	0.0000	0.0024
459	0.0000	0.0016
460	0.0000	0.0035
461	0.0000	0.0017
462	0.0000	0.0030
463	0.0000	0.0020
464	0.0000	0.0017
465	0.0000	0.0031
466	0.0000	0.0030
467	0.0000	0.0029
468	0.0000	0.0032
469	0.0000	0.0031
470	0.0000	0.0049
471	0.0000	0.0066
472	0.0000	0.0060
473	0.0000	0.0055
474	0.0000	0.0058
475	0.0000	0.0062
476	0.0000	0.0064
477	0.0000	0.0068
478	0.0000	0.0053
479	0.0000	0.0077
480	0.0000	0.0047
481	0.0000	0.0065
482	0.0000	0.0048
483	0.0000	0.0060
484	0.0000	0.0064
485	0.0000	0.0057
486	0.0000	0.0085
487	0.0000	0.0067
488	0.0000	0.0060
489	0.0000	0.0081
490	0.0000	0.0046
491	0.0000	0.0086
492	0.0000	0.0070
493	0.0000	0.0095
494	0.0000	0.0084
495	0.0000	0.0082
496	0.0000	0.0072
497	0.0000	0.0083
498	0.0000	0.0059
499	0.0000	0.0077
500	0.0000	0.0065
501	0.0000	0.0080
502	0.0000	0.0059
503	0.0000	0.0065
504	0.0000	0.0066
505	0.0000	0.0058
506	0.0000	0.0071
507	0.0000	0.0073
508	0.0000	0.0072
509	0.0000	0.0069
510	0.0000	0.0081
511	0.0000	0.0056
512	0.0000	0.0081
513	0.0000	0.0094
514	0.0000	0.0067
515	0.0000	0.0087
516	0.0000	0.0073
517	0.0000	0.0086
518	0.0000	0.0073
519	0.0000	0.0099
520	0.0000	0.0074
521	0.0000	0.0082
522	0.0000	0.0067
523	0.0000	0.0080
524	0.0000	0.0085
525	0.0000	0.0088
526	0.0000	0.0076
527	0.0000	0.0099
528	0.0000	0.0086
529	0.0000	0.0120
530	0.0000	0.0091
531	0.0000	0.0128
532	0.0000	0.0129
533	0.0000	0.0117
534	0.0000	0.0117
535	0.0000	0.0119
536	0.0000	0.0113
537	0.0000	0.0146
538	0.0000	0.0150
539	0.0000	0.0141
540	0.0000	0.0151
541	0.0001	0.0178
542	0.0000	0.0144
543	0.0001	0.0192
544	0.0001	0.0222
545	0.0001	0.0220
546	0.0001	0.0224
547	0.0001	0.0253
548	0.0001	0.0234
549	0.0001	0.0325
550	0.0001	0.0253
551	0.0001	0.0363
552	0.0001	0.0386
553	0.0001	0.0397
554	0.0001	0.0454
555	0.0001	0.0491
556	0.0002	0.0582
557	0.0002	0.0666
558	0.0002	0.0699
559	0.0002	0.0771
560	0.0003	0.1180
561	0.0004	0.1376
562	0.0004	0.1457
563	0.0004	0.1543
564	0.0005	0.1744
565	0.0005	0.1943
566	0.0006	0.2213
567	0.0007	0.2347
568	0.0008	0.2667
569	0.0008	0.2928
570	0.0009	0.3267
571	0.0010	0.3639
572	0.0011	0.4071
573	0.0013	0.4623
574	0.0014	0.5126
575	0.0016	0.5675
576	0.0018	0.6343
577	0.0020	0.7188
578	0.0023	0.8103
579	0.0025	0.9015
580	0.0030	1.0598
581	0.0034	1.1921
582	0.0037	1.3074
583	0.0042	1.4732
584	0.0046	1.6462
585	0.0052	1.8496
586	0.0060	2.1107
587	0.0067	2.3810
588	0.0075	2.6661
589	0.0085	3.0028
590	0.0096	3.3995
591	0.0108	3.8294
592	0.0122	4.3352
593	0.0136	4.8028
594	0.0153	5.4079
595	0.0173	6.1240
596	0.0191	6.7636
597	0.0217	7.6725
598	0.0238	8.4285
599	0.0267	9.4705
600	0.0302	10.6749
601	0.0332	11.7582
602	0.0368	13.0121
603	0.0409	14.4685
604	0.0458	16.2295
605	0.0507	17.9403
606	0.0560	19.8265
607	0.0619	21.9323
608	0.0691	24.4600
609	0.0767	27.1661
610	0.0851	30.1376
611	0.0945	33.4449
612	0.1054	37.3211
613	0.1160	41.0591
614	0.1298	45.9578
615	0.1439	50.9474
616	0.1600	56.6368
617	0.1780	63.0162
618	0.1996	70.6517
619	0.2225	78.7852
620	0.2459	87.0673
621	0.2751	97.4062
622	0.3078	108.9887
623	0.3423	121.1758
624	0.3812	134.9761
625	0.4236	149.9770
626	0.4748	168.0910
627	0.5291	187.3381
628	0.5836	206.6396
629	0.6473	229.1660
630	0.7144	252.9520
631	0.7786	275.6789
632	0.8418	298.0592
633	0.9071	321.1689
634	0.9603	340.0087
635	0.9853	348.8511
636	1.0000	354.0538
637	0.9819	347.6626
638	0.9463	335.0459
639	0.8953	316.9996
640	0.8070	285.7124
641	0.7101	251.4232
642	0.6114	216.4705
643	0.5200	184.0933
644	0.4402	155.8438
645	0.3663	129.6790
646	0.3046	107.8363
647	0.2560	90.6323
648	0.2108	74.6484
649	0.1777	62.9115
650	0.1485	52.5822
651	0.1229	43.5255
652	0.1034	36.6146
653	0.0873	30.9115
654	0.0734	25.9906
655	0.0620	21.9532
656	0.0531	18.8022
657	0.0457	16.1719
658	0.0399	14.1181
659	0.0340	12.0438
660	0.0280	9.9283
661	0.0254	8.9909
662	0.0227	8.0510
663	0.0208	7.3561
664	0.0195	6.8945
665	0.0184	6.4981
666	0.0177	6.2723
667	0.0169	5.9876
668	0.0166	5.8926
669	0.0164	5.7926
670	0.0166	5.8725
671	0.0169	5.9960
672	0.0177	6.2624
673	0.0181	6.4010
674	0.0194	6.8710
675	0.0200	7.0894
676	0.0214	7.5603
677	0.0226	8.0122
678	0.0246	8.6932
679	0.0263	9.3016
680	0.0282	9.9957
681	0.0305	10.7877
682	0.0329	11.6641
683	0.0360	12.7536
684	0.0389	13.7598
685	0.0421	14.9215
686	0.0457	16.1782
687	0.0491	17.3944
688	0.0531	18.7862
689	0.0580	20.5313
690	0.0628	22.2315
691	0.0682	24.1512
692	0.0747	26.4456
693	0.0808	28.6146
694	0.0873	30.9225
695	0.0943	33.3824
696	0.1028	36.4023
697	0.1100	38.9329
698	0.1179	41.7587
699	0.1290	45.6635
700	0.1392	49.2780
701	0.1514	53.5943
702	0.1610	57.0190
703	0.1729	61.2116
704	0.1858	65.7676
705	0.2011	71.2136
706	0.2150	76.1283
707	0.2297	81.3391
708	0.2461	87.1256
709	0.2607	92.3044
710	0.2789	98.7357
711	0.2953	104.5524
712	0.3102	109.8309
713	0.3319	117.5112
714	0.3518	124.5675
715	0.3721	131.7342
716	0.3973	140.6666
717	0.4193	148.4542
718	0.4455	157.7186
719	0.4690	166.0402
720	0.4955	175.4256
721	0.5146	182.1934
722	0.5514	195.2090
723	0.5715	202.3549
724	0.5994	212.2093
725	0.6203	219.6364
726	0.6478	229.3512
727	0.6759	239.3067
728	0.6886	243.8084
729	0.7096	251.2328
730	0.7191	254.6057
731	0.7196	254.7753
732	0.7211	255.3113
733	0.7135	252.6192
734	0.6935	245.5478
735	0.6733	238.3740
736	0.6422	227.3785
737	0.6096	215.8402
738	0.5661	200.4338
739	0.5242	185.6048
740	0.4800	169.9297
741	0.4256	150.6808
742	0.3820	135.2409
743	0.3402	120.4343
744	0.2983	105.6054
745	0.2605	92.2401
746	0.2275	80.5441
747	0.1990	70.4703
748	0.1691	59.8721
749	0.1492	52.8292
750	0.1291	45.7209
751	0.1132	40.0890
752	0.0968	34.2817
753	0.0868	30.7155
754	0.0737	26.0824
755	0.0645	22.8277
756	0.0555	19.6617
757	0.0476	16.8554
758	0.0411	14.5351
759	0.0361	12.7756
760	0.0317	11.2393
761	0.0286	10.1160
762	0.0242	8.5593
763	0.0214	7.5596
764	0.0187	6.6214
765	0.0165	5.8244
766	0.0144	5.0979
767	0.0123	4.3532
768	0.0114	4.0330
769	0.0102	3.6186
770	0.0089	3.1517
771	0.0079	2.7835
772	0.0072	2.5473
773	0.0067	2.3635
774	0.0059	2.1056
775	0.0054	1.9241
776	0.0050	1.7645
777	0.0044	1.5593
778	0.0041	1.4646
779	0.0040	1.4311
780	0.0035	1.2475
781	0.0031	1.1139
782	0.0032	1.1446
783	0.0030	1.0691
784	0.0028	0.9879
785	0.0025	0.8833
786	0.0025	0.9003
787	0.0022	0.7722
788	0.0024	0.8451
789	0.0021	0.7417
790	0.0021	0.7425
791	0.0020	0.7071
792	0.0019	0.6586
793	0.0018	0.6287
794	0.0017	0.5947
795	0.0017	0.5987
796	0.0019	0.6750
797	0.0017	0.6017
798	0.0016	0.5724
799	0.0016	0.5832
800	0.0017	0.5992
