WL(nm)	PL	PE(mW/nm)
380	0.0038	2.4345
381	0.0034	2.1974
382	0.0030	1.9330
383	0.0028	1.7829
384	0.0025	1.5809
385	0.0024	1.5380
386	0.0021	1.3786
387	0.0021	1.3380
388	0.0020	1.2701
389	0.0018	1.1660
390	0.0017	1.0840
391	0.0016	1.0338
392	0.0016	1.0329
393	0.0015	0.9622
394	0.0015	0.9638
395	0.0014	0.8918
396	0.0014	0.8773
397	0.0014	0.8804
398	0.0014	0.8822
399	0.0014	0.8762
400	0.0014	0.9161
401	0.0015	0.9637
402	0.0016	1.0308
403	0.0017	1.0962
404	0.0019	1.2003
405	0.0020	1.3102
406	0.0023	1.4854
407	0.0026	1.6517
408	0.0029	1.8823
409	0.0034	2.1586
410	0.0040	2.5650
411	0.0047	3.0344
412	0.0056	3.6090
413	0.0066	4.2399
414	0.0078	5.0409
415	0.0091	5.8795
416	0.0109	7.0122
417	0.0130	8.3778
418	0.0153	9.8693
419	0.0185	11.9280
420	0.0219	14.0736
421	0.0260	16.7251
422	0.0302	19.4240
423	0.0364	23.3868
424	0.0428	27.5084
425	0.0504	32.4380
426	0.0584	37.5482
427	0.0682	43.8701
428	0.0790	50.8321
429	0.0925	59.5282
430	0.1076	69.2380
431	0.1246	80.1155
432	0.1425	91.6425
433	0.1624	104.4452
434	0.1869	120.1983
435	0.2130	137.0239
436	0.2393	153.9110
437	0.2692	173.1420
438	0.3022	194.3838
439	0.3435	220.9670
440	0.3827	246.1528
441	0.4385	282.0376
442	0.4876	313.6102
443	0.5469	351.7782
444	0.6138	394.8250
445	0.6800	437.3744
446	0.7439	478.4951
447	0.8104	521.2844
448	0.8699	559.5349
449	0.9268	596.1118
450	0.9708	624.4193
451	0.9896	636.5424
452	1.0000	643.2193
453	0.9972	641.4135
454	0.9498	610.9468
455	0.8951	575.7675
456	0.8377	538.8257
457	0.7718	496.4540
458	0.7076	455.1463
459	0.6413	412.4993
460	0.5817	374.1480
461	0.5330	342.8456
462	0.4852	312.0811
463	0.4487	288.6314
464	0.4075	262.1282
465	0.3783	243.3321
466	0.3474	223.4768
467	0.3195	205.4953
468	0.2946	189.5013
469	0.2685	172.6885
470	0.2403	154.5588
471	0.2162	139.0597
472	0.1955	125.7352
473	0.1744	112.1993
474	0.1555	100.0096
475	0.1394	89.6587
476	0.1259	80.9830
477	0.1142	73.4371
478	0.1031	66.2999
479	0.0935	60.1510
480	0.0862	55.4408
481	0.0794	51.1019
482	0.0739	47.5024
483	0.0683	43.9466
484	0.0646	41.5744
485	0.0599	38.5286
486	0.0570	36.6738
487	0.0541	34.8027
488	0.0516	33.2155
489	0.0493	31.6937
490	0.0482	30.9952
491	0.0469	30.1852
492	0.0465	29.9179
493	0.0467	30.0563
494	0.0474	30.5124
495	0.0487	31.3335
496	0.0503	32.3522
497	0.0523	33.6645
498	0.0552	35.5174
499	0.0584	37.5832
500	0.0623	40.0850
501	0.0660	42.4317
502	0.0718	46.1881
503	0.0766	49.2857
504	0.0836	53.7774
505	0.0909	58.4563
506	0.0978	62.8893
507	0.1064	68.4290
508	0.1152	74.0923
509	0.1255	80.7427
510	0.1365	87.7801
511	0.1475	94.8430
512	0.1583	101.8145
513	0.1715	110.2935
514	0.1838	118.2103
515	0.1939	124.7172
516	0.2061	132.5519
517	0.2182	140.3643
518	0.2293	147.5041
519	0.2396	154.1300
520	0.2485	159.8339
521	0.2547	163.8006
522	0.2605	167.5690
523	0.2630	169.1544
524	0.2693	173.1923
525	0.2688	172.8689
526	0.2672	171.8682
527	0.2619	168.4564
528	0.2581	166.0412
529	0.2528	162.6327
530	0.2438	156.8208
531	0.2370	152.4481
532	0.2285	146.9450
533	0.2190	140.8781
534	0.2092	134.5635
535	0.1995	128.3143
536	0.1898	122.1065
537	0.1824	117.3130
538	0.1741	112.0056
539	0.1643	105.6640
540	0.1556	100.1164
541	0.1489	95.7942
542	0.1404	90.2834
543	0.1332	85.6569
544	0.1259	80.9574
545	0.1209	77.7438
546	0.1140	73.3084
547	0.1078	69.3124
548	0.1023	65.7957
549	0.0960	61.7235
550	0.0906	58.2850
551	0.0851	54.7513
552	0.0800	51.4556
553	0.0751	48.2977
554	0.0702	45.1650
555	0.0662	42.5866
556	0.0623	40.0501
557	0.0580	37.2849
558	0.0546	35.1480
559	0.0517	33.2510
560	0.0461	29.6346
561	0.0432	27.8170
562	0.0406	26.1144
563	0.0380	24.4209
564	0.0360	23.1373
565	0.0336	21.6197
566	0.0318	20.4358
567	0.0299	19.2028
568	0.0281	18.0835
569	0.0264	16.9874
570	0.0250	16.0538
571	0.0232	14.9416
572	0.0222	14.2867
573	0.0210	13.5197
574	0.0197	12.6802
575	0.0188	12.0627
576	0.0178	11.4485
577	0.0169	10.8556
578	0.0161	10.3352
579	0.0153	9.8296
580	0.0146	9.4206
581	0.0140	8.9949
582	0.0134	8.6431
583	0.0132	8.4595
584	0.0128	8.2277
585	0.0125	8.0416
586	0.0123	7.9194
587	0.0122	7.8668
588	0.0121	7.8120
589	0.0121	7.7910
590	0.0124	7.9719
591	0.0126	8.0838
592	0.0128	8.2593
593	0.0133	8.5550
594	0.0139	8.9176
595	0.0144	9.2436
596	0.0152	9.7984
597	0.0160	10.2788
598	0.0170	10.9076
599	0.0182	11.6896
600	0.0194	12.4885
601	0.0211	13.5717
602	0.0227	14.6195
603	0.0242	15.5750
604	0.0263	16.9161
605	0.0290	18.6323
606	0.0313	20.1400
607	0.0341	21.9043
608	0.0370	23.7812
609	0.0406	26.1345
610	0.0447	28.7819
611	0.0487	31.3256
612	0.0532	34.2007
613	0.0580	37.3025
614	0.0632	40.6560
615	0.0692	44.5222
616	0.0756	48.6317
617	0.0820	52.7261
618	0.0907	58.3335
619	0.0995	64.0037
620	0.1090	70.1045
621	0.1195	76.8383
622	0.1303	83.8076
623	0.1429	91.9206
624	0.1569	100.8988
625	0.1703	109.5199
626	0.1856	119.4000
627	0.2011	129.3810
628	0.2187	140.6899
629	0.2377	152.9246
630	0.2610	167.8906
631	0.2794	179.7463
632	0.3034	195.1635
633	0.3277	210.7594
634	0.3509	225.7299
635	0.3760	241.8752
636	0.4015	258.2398
637	0.4315	277.5504
638	0.4521	290.8073
639	0.4801	308.7783
640	0.4977	320.1413
641	0.5070	326.0902
642	0.5062	325.5867
643	0.4992	321.1203
644	0.4831	310.7608
645	0.4546	292.3873
646	0.4117	264.8368
647	0.3727	239.7524
648	0.3275	210.6301
649	0.2831	182.0906
650	0.2417	155.4558
651	0.2050	131.8557
652	0.1704	109.6315
653	0.1429	91.8914
654	0.1192	76.6867
655	0.0997	64.1154
656	0.0832	53.4954
657	0.0700	45.0547
658	0.0585	37.6408
659	0.0484	31.1130
660	0.0384	24.6812
661	0.0321	20.6433
662	0.0267	17.2014
663	0.0227	14.6226
664	0.0190	12.2458
665	0.0161	10.3362
666	0.0139	8.9333
667	0.0117	7.5471
668	0.0103	6.6372
669	0.0090	5.7647
670	0.0075	4.8338
671	0.0066	4.2240
672	0.0058	3.7560
673	0.0050	3.2111
674	0.0045	2.8770
675	0.0038	2.4443
676	0.0034	2.2072
677	0.0029	1.8925
678	0.0027	1.7351
679	0.0023	1.4944
680	0.0022	1.3908
681	0.0019	1.2122
682	0.0017	1.0844
683	0.0015	0.9821
684	0.0014	0.9090
685	0.0013	0.8518
686	0.0012	0.7804
687	0.0011	0.7088
688	0.0010	0.6738
689	0.0010	0.6195
690	0.0009	0.5818
691	0.0009	0.5499
692	0.0008	0.5228
693	0.0008	0.5019
694	0.0007	0.4731
695	0.0007	0.4639
696	0.0007	0.4372
697	0.0006	0.4153
698	0.0006	0.4086
699	0.0006	0.3787
700	0.0006	0.3780
701	0.0006	0.3755
702	0.0005	0.3520
703	0.0005	0.3380
704	0.0005	0.3243
705	0.0005	0.3202
706	0.0005	0.3149
707	0.0005	0.2911
708	0.0005	0.3135
709	0.0005	0.2967
710	0.0004	0.2791
711	0.0004	0.2740
712	0.0005	0.2936
713	0.0004	0.2669
714	0.0004	0.2775
715	0.0004	0.2662
716	0.0004	0.2661
717	0.0004	0.2528
718	0.0004	0.2544
719	0.0004	0.2447
720	0.0004	0.2406
721	0.0004	0.2494
722	0.0004	0.2438
723	0.0004	0.2472
724	0.0004	0.2376
725	0.0004	0.2329
726	0.0004	0.2313
727	0.0004	0.2348
728	0.0003	0.2170
729	0.0003	0.2027
730	0.0003	0.2241
731	0.0003	0.2239
732	0.0003	0.2014
733	0.0004	0.2477
734	0.0003	0.2188
735	0.0003	0.2176
736	0.0003	0.2170
737	0.0003	0.2118
738	0.0003	0.2092
739	0.0003	0.1966
740	0.0003	0.2195
741	0.0003	0.2181
742	0.0003	0.2246
743	0.0003	0.2094
744	0.0003	0.1933
745	0.0003	0.1797
746	0.0004	0.2256
747	0.0003	0.2072
748	0.0003	0.2075
749	0.0004	0.2483
750	0.0003	0.1848
751	0.0003	0.2108
752	0.0003	0.2212
753	0.0004	0.2408
754	0.0004	0.2296
755	0.0004	0.2333
756	0.0004	0.2481
757	0.0003	0.2074
758	0.0003	0.1914
759	0.0003	0.1880
760	0.0003	0.2081
761	0.0004	0.2399
762	0.0004	0.2602
763	0.0003	0.2114
764	0.0004	0.2601
765	0.0003	0.1966
766	0.0004	0.2411
767	0.0004	0.2303
768	0.0004	0.2286
769	0.0004	0.2466
770	0.0004	0.2564
771	0.0003	0.2207
772	0.0004	0.2513
773	0.0004	0.2647
774	0.0004	0.2870
775	0.0004	0.2392
776	0.0004	0.2339
777	0.0004	0.2465
778	0.0005	0.3008
779	0.0005	0.2971
780	0.0004	0.2448
781	0.0004	0.2624
782	0.0004	0.2767
783	0.0004	0.2303
784	0.0004	0.2347
785	0.0004	0.2333
786	0.0004	0.2674
787	0.0004	0.2821
788	0.0005	0.3345
789	0.0005	0.3267
790	0.0005	0.3086
791	0.0004	0.2787
792	0.0005	0.3276
793	0.0004	0.2608
794	0.0005	0.2993
795	0.0005	0.2941
796	0.0005	0.3241
797	0.0004	0.2687
798	0.0005	0.3175
799	0.0005	0.3346
800	0.0004	0.2524
