WL(nm)	PL	PE(mW/nm)
380	0.0111	0.5081
381	0.0087	0.3977
382	0.0079	0.3607
383	0.0072	0.3321
384	0.0062	0.2818
385	0.0060	0.2728
386	0.0053	0.2433
387	0.0050	0.2294
388	0.0045	0.2046
389	0.0047	0.2135
390	0.0040	0.1814
391	0.0039	0.1801
392	0.0038	0.1735
393	0.0034	0.1569
394	0.0030	0.1360
395	0.0037	0.1715
396	0.0034	0.1556
397	0.0032	0.1472
398	0.0034	0.1567
399	0.0038	0.1725
400	0.0039	0.1784
401	0.0047	0.2169
402	0.0046	0.2126
403	0.0054	0.2466
404	0.0062	0.2827
405	0.0071	0.3241
406	0.0077	0.3517
407	0.0089	0.4098
408	0.0103	0.4722
409	0.0124	0.5660
410	0.0140	0.6408
411	0.0171	0.7829
412	0.0197	0.9022
413	0.0233	1.0655
414	0.0264	1.2103
415	0.0316	1.4484
416	0.0371	1.6984
417	0.0428	1.9607
418	0.0487	2.2338
419	0.0575	2.6360
420	0.0644	2.9515
421	0.0759	3.4797
422	0.0856	3.9210
423	0.0978	4.4831
424	0.1140	5.2231
425	0.1275	5.8425
426	0.1426	6.5330
427	0.1567	7.1823
428	0.1760	8.0653
429	0.1976	9.0557
430	0.2163	9.9144
431	0.2422	11.0972
432	0.2632	12.0620
433	0.2865	13.1296
434	0.3127	14.3293
435	0.3341	15.3105
436	0.3696	16.9381
437	0.3952	18.1105
438	0.4173	19.1209
439	0.4526	20.7421
440	0.4815	22.0629
441	0.5087	23.3135
442	0.5432	24.8926
443	0.5848	26.7991
444	0.6232	28.5600
445	0.6699	30.7007
446	0.7079	32.4389
447	0.7553	34.6105
448	0.8059	36.9300
449	0.8548	39.1723
450	0.8881	40.6984
451	0.9384	43.0016
452	0.9638	44.1669
453	0.9850	45.1397
454	0.9915	45.4363
455	1.0000	45.8258
456	0.9980	45.7345
457	0.9785	44.8393
458	0.9390	43.0289
459	0.9050	41.4725
460	0.8630	39.5461
461	0.8118	37.2002
462	0.7667	35.1359
463	0.7151	32.7717
464	0.6780	31.0699
465	0.6314	28.9340
466	0.5974	27.3773
467	0.5630	25.8008
468	0.5390	24.7008
469	0.5107	23.4035
470	0.4811	22.0454
471	0.4631	21.2241
472	0.4398	20.1561
473	0.4196	19.2282
474	0.4002	18.3394
475	0.3858	17.6812
476	0.3680	16.8636
477	0.3505	16.0605
478	0.3383	15.5016
479	0.3210	14.7102
480	0.3091	14.1646
481	0.2964	13.5835
482	0.2876	13.1806
483	0.2805	12.8537
484	0.2730	12.5096
485	0.2680	12.2793
486	0.2628	12.0419
487	0.2608	11.9525
488	0.2572	11.7875
489	0.2584	11.8406
490	0.2576	11.8050
491	0.2577	11.8113
492	0.2643	12.1138
493	0.2662	12.1966
494	0.2707	12.4035
495	0.2752	12.6100
496	0.2782	12.7505
497	0.2869	13.1458
498	0.2977	13.6433
499	0.3025	13.8645
500	0.3107	14.2385
501	0.3226	14.7843
502	0.3317	15.2011
503	0.3455	15.8322
504	0.3584	16.4244
505	0.3675	16.8393
506	0.3850	17.6433
507	0.3994	18.3031
508	0.4105	18.8114
509	0.4265	19.5441
510	0.4414	20.2257
511	0.4565	20.9172
512	0.4676	21.4274
513	0.4801	21.9997
514	0.4932	22.6001
515	0.5057	23.1722
516	0.5207	23.8601
517	0.5305	24.3104
518	0.5419	24.8319
519	0.5565	25.5008
520	0.5700	26.1208
521	0.5783	26.4993
522	0.5916	27.1120
523	0.5985	27.4260
524	0.6099	27.9471
525	0.6261	28.6903
526	0.6286	28.8057
527	0.6397	29.3162
528	0.6501	29.7922
529	0.6586	30.1823
530	0.6672	30.5771
531	0.6733	30.8560
532	0.6803	31.1742
533	0.6909	31.6609
534	0.6957	31.8812
535	0.7012	32.1334
536	0.7020	32.1682
537	0.7118	32.6195
538	0.7177	32.8912
539	0.7254	33.2424
540	0.7219	33.0800
541	0.7322	33.5531
542	0.7355	33.7070
543	0.7441	34.0999
544	0.7469	34.2276
545	0.7484	34.2980
546	0.7575	34.7154
547	0.7646	35.0379
548	0.7681	35.1972
549	0.7702	35.2943
550	0.7811	35.7964
551	0.7746	35.4988
552	0.7852	35.9840
553	0.7856	35.9997
554	0.7999	36.6574
555	0.8011	36.7131
556	0.8132	37.2662
557	0.8106	37.1442
558	0.8192	37.5407
559	0.8267	37.8858
560	0.8221	37.6721
561	0.8207	37.6107
562	0.8340	38.2193
563	0.8337	38.2049
564	0.8413	38.5527
565	0.8517	39.0281
566	0.8520	39.0447
567	0.8601	39.4146
568	0.8599	39.4052
569	0.8687	39.8089
570	0.8777	40.2209
571	0.8773	40.2042
572	0.8884	40.7096
573	0.8867	40.6331
574	0.8913	40.8463
575	0.9004	41.2597
576	0.8980	41.1506
577	0.9063	41.5327
578	0.9108	41.7389
579	0.9116	41.7763
580	0.9126	41.8210
581	0.9174	42.0391
582	0.9174	42.0428
583	0.9224	42.2712
584	0.9261	42.4378
585	0.9250	42.3874
586	0.9303	42.6337
587	0.9287	42.5589
588	0.9304	42.6364
589	0.9302	42.6272
590	0.9365	42.9174
591	0.9251	42.3955
592	0.9371	42.9449
593	0.9254	42.4056
594	0.9313	42.6793
595	0.9293	42.5870
596	0.9271	42.4859
597	0.9251	42.3949
598	0.9182	42.0790
599	0.9233	42.3107
600	0.9132	41.8495
601	0.9082	41.6180
602	0.9075	41.5881
603	0.9020	41.3326
604	0.9011	41.2933
605	0.8898	40.7745
606	0.8824	40.4368
607	0.8805	40.3510
608	0.8826	40.4441
609	0.8779	40.2305
610	0.8697	39.8568
611	0.8572	39.2798
612	0.8471	38.8189
613	0.8424	38.6039
614	0.8386	38.4296
615	0.8341	38.2245
616	0.8202	37.5882
617	0.8212	37.6320
618	0.7996	36.6437
619	0.7958	36.4673
620	0.7900	36.2009
621	0.7760	35.5625
622	0.7728	35.4149
623	0.7579	34.7307
624	0.7530	34.5063
625	0.7413	33.9687
626	0.7347	33.6698
627	0.7159	32.8072
628	0.7138	32.7098
629	0.7003	32.0941
630	0.6862	31.4446
631	0.6719	30.7927
632	0.6674	30.5846
633	0.6540	29.9709
634	0.6431	29.4716
635	0.6332	29.0169
636	0.6220	28.5027
637	0.6107	27.9849
638	0.6027	27.6191
639	0.5897	27.0248
640	0.5812	26.6348
641	0.5740	26.3021
642	0.5552	25.4440
643	0.5450	24.9732
644	0.5331	24.4320
645	0.5278	24.1874
646	0.5148	23.5911
647	0.5076	23.2627
648	0.4919	22.5427
649	0.4875	22.3385
650	0.4746	21.7484
651	0.4659	21.3524
652	0.4554	20.8700
653	0.4471	20.4867
654	0.4360	19.9782
655	0.4259	19.5175
656	0.4183	19.1689
657	0.4068	18.6429
658	0.3964	18.1659
659	0.3907	17.9033
660	0.3747	17.1711
661	0.3652	16.7338
662	0.3608	16.5338
663	0.3460	15.8551
664	0.3416	15.6539
665	0.3346	15.3312
666	0.3250	14.8940
667	0.3154	14.4556
668	0.3094	14.1797
669	0.3036	13.9135
670	0.2970	13.6095
671	0.2874	13.1717
672	0.2794	12.8045
673	0.2744	12.5764
674	0.2652	12.1541
675	0.2606	11.9439
676	0.2541	11.6441
677	0.2508	11.4909
678	0.2390	10.9521
679	0.2348	10.7584
680	0.2293	10.5099
681	0.2211	10.1314
682	0.2181	9.9944
683	0.2092	9.5880
684	0.2066	9.4678
685	0.1999	9.1586
686	0.1936	8.8705
687	0.1882	8.6249
688	0.1859	8.5179
689	0.1814	8.3136
690	0.1735	7.9488
691	0.1688	7.7370
692	0.1667	7.6381
693	0.1606	7.3610
694	0.1571	7.1977
695	0.1532	7.0207
696	0.1503	6.8861
697	0.1447	6.6295
698	0.1393	6.3857
699	0.1370	6.2802
700	0.1347	6.1722
701	0.1287	5.8978
702	0.1278	5.8565
703	0.1221	5.5949
704	0.1194	5.4707
705	0.1149	5.2646
706	0.1128	5.1684
707	0.1099	5.0378
708	0.1061	4.8600
709	0.1039	4.7613
710	0.1010	4.6264
711	0.0968	4.4370
712	0.0937	4.2930
713	0.0930	4.2617
714	0.0888	4.0673
715	0.0860	3.9428
716	0.0848	3.8843
717	0.0831	3.8093
718	0.0804	3.6866
719	0.0780	3.5741
720	0.0756	3.4630
721	0.0726	3.3281
722	0.0730	3.3470
723	0.0687	3.1475
724	0.0679	3.1126
725	0.0647	2.9638
726	0.0636	2.9143
727	0.0619	2.8358
728	0.0602	2.7607
729	0.0564	2.5864
730	0.0579	2.6530
731	0.0538	2.4644
732	0.0529	2.4235
733	0.0520	2.3833
734	0.0510	2.3373
735	0.0506	2.3188
736	0.0482	2.2086
737	0.0467	2.1421
738	0.0443	2.0315
739	0.0458	2.0975
740	0.0438	2.0094
741	0.0417	1.9116
742	0.0423	1.9394
743	0.0384	1.7596
744	0.0371	1.7005
745	0.0366	1.6769
746	0.0377	1.7255
747	0.0354	1.6223
748	0.0346	1.5867
749	0.0327	1.4976
750	0.0306	1.4002
751	0.0306	1.4011
752	0.0306	1.4041
753	0.0296	1.3587
754	0.0285	1.3050
755	0.0278	1.2761
756	0.0281	1.2898
757	0.0252	1.1536
758	0.0246	1.1288
759	0.0250	1.1474
760	0.0243	1.1136
761	0.0243	1.1156
762	0.0247	1.1305
763	0.0232	1.0636
764	0.0225	1.0297
765	0.0224	1.0249
766	0.0206	0.9438
767	0.0209	0.9598
768	0.0191	0.8760
769	0.0186	0.8540
770	0.0188	0.8633
771	0.0177	0.8114
772	0.0174	0.7986
773	0.0164	0.7537
774	0.0156	0.7139
775	0.0160	0.7318
776	0.0153	0.7012
777	0.0145	0.6625
778	0.0156	0.7163
779	0.0155	0.7111
780	0.0132	0.6037
781	0.0139	0.6370
782	0.0138	0.6337
783	0.0139	0.6352
784	0.0123	0.5649
785	0.0125	0.5743
786	0.0115	0.5254
787	0.0117	0.5353
788	0.0120	0.5487
789	0.0127	0.5840
790	0.0108	0.4964
791	0.0110	0.5028
792	0.0095	0.4331
793	0.0118	0.5396
794	0.0100	0.4585
795	0.0090	0.4146
796	0.0107	0.4899
797	0.0090	0.4143
798	0.0102	0.4669
799	0.0085	0.3901
800	0.0092	0.4199
