WL(nm)	PL	PE(mW/nm)
380	0.0113	1.0324
381	0.0095	0.8632
382	0.0086	0.7814
383	0.0077	0.7019
384	0.0079	0.7183
385	0.0065	0.5889
386	0.0059	0.5342
387	0.0054	0.4936
388	0.0053	0.4863
389	0.0047	0.4288
390	0.0048	0.4406
391	0.0047	0.4259
392	0.0042	0.3827
393	0.0043	0.3878
394	0.0040	0.3686
395	0.0042	0.3868
396	0.0044	0.3996
397	0.0046	0.4199
398	0.0049	0.4503
399	0.0055	0.5026
400	0.0059	0.5331
401	0.0066	0.6030
402	0.0076	0.6879
403	0.0084	0.7683
404	0.0097	0.8873
405	0.0111	1.0095
406	0.0127	1.1523
407	0.0152	1.3805
408	0.0166	1.5112
409	0.0204	1.8605
410	0.0230	2.0980
411	0.0269	2.4540
412	0.0317	2.8876
413	0.0371	3.3832
414	0.0425	3.8682
415	0.0491	4.4745
416	0.0566	5.1512
417	0.0656	5.9721
418	0.0752	6.8485
419	0.0853	7.7724
420	0.0974	8.8716
421	0.1104	10.0582
422	0.1240	11.2890
423	0.1401	12.7569
424	0.1578	14.3721
425	0.1763	16.0598
426	0.1985	18.0801
427	0.2137	19.4667
428	0.2349	21.3976
429	0.2642	24.0623
430	0.2841	25.8748
431	0.3152	28.7075
432	0.3383	30.8089
433	0.3660	33.3376
434	0.3935	35.8364
435	0.4187	38.1331
436	0.4551	41.4480
437	0.4824	43.9316
438	0.5062	46.1040
439	0.5453	49.6661
440	0.5714	52.0425
441	0.5977	54.4394
442	0.6326	57.6167
443	0.6693	60.9602
444	0.7071	64.3949
445	0.7465	67.9878
446	0.7767	70.7339
447	0.8178	74.4816
448	0.8583	78.1705
449	0.8950	81.5109
450	0.9266	84.3911
451	0.9627	87.6753
452	0.9773	89.0025
453	0.9943	90.5564
454	0.9950	90.6193
455	1.0000	91.0744
456	0.9936	90.4873
457	0.9724	88.5612
458	0.9385	85.4749
459	0.9089	82.7812
460	0.8708	79.3047
461	0.8255	75.1833
462	0.7849	71.4808
463	0.7351	66.9509
464	0.7010	63.8418
465	0.6564	59.7770
466	0.6223	56.6752
467	0.5860	53.3658
468	0.5641	51.3710
469	0.5308	48.3417
470	0.5012	45.6503
471	0.4822	43.9115
472	0.4593	41.8285
473	0.4369	39.7881
474	0.4172	37.9962
475	0.4039	36.7823
476	0.3832	34.9018
477	0.3664	33.3659
478	0.3538	32.2190
479	0.3374	30.7298
480	0.3255	29.6426
481	0.3127	28.4763
482	0.3045	27.7284
483	0.2958	26.9382
484	0.2886	26.2866
485	0.2830	25.7745
486	0.2778	25.3030
487	0.2746	25.0111
488	0.2692	24.5188
489	0.2726	24.8225
490	0.2688	24.4820
491	0.2693	24.5296
492	0.2751	25.0520
493	0.2767	25.1971
494	0.2807	25.5688
495	0.2839	25.8572
496	0.2888	26.3002
497	0.2958	26.9423
498	0.3037	27.6588
499	0.3107	28.2935
500	0.3206	29.2018
501	0.3298	30.0360
502	0.3404	31.0005
503	0.3524	32.0903
504	0.3639	33.1444
505	0.3751	34.1589
506	0.3886	35.3921
507	0.4047	36.8552
508	0.4137	37.6804
509	0.4301	39.1718
510	0.4418	40.2347
511	0.4583	41.7410
512	0.4694	42.7473
513	0.4822	43.9138
514	0.4966	45.2243
515	0.5084	46.3049
516	0.5214	47.4857
517	0.5280	48.0840
518	0.5414	49.3036
519	0.5540	50.4584
520	0.5705	51.9611
521	0.5814	52.9468
522	0.5868	53.4395
523	0.5994	54.5879
524	0.6087	55.4384
525	0.6220	56.6503
526	0.6290	57.2831
527	0.6397	58.2619
528	0.6518	59.3594
529	0.6576	59.8912
530	0.6656	60.6219
531	0.6724	61.2357
532	0.6803	61.9566
533	0.6893	62.7790
534	0.6936	63.1711
535	0.7032	64.0390
536	0.7067	64.3653
537	0.7135	64.9796
538	0.7199	65.5607
539	0.7297	66.4586
540	0.7288	66.3766
541	0.7363	67.0546
542	0.7425	67.6239
543	0.7510	68.3985
544	0.7545	68.7149
545	0.7557	68.8218
546	0.7659	69.7545
547	0.7717	70.2793
548	0.7766	70.7278
549	0.7797	71.0118
550	0.7878	71.7493
551	0.7853	71.5181
552	0.7945	72.3589
553	0.7993	72.7982
554	0.8124	73.9875
555	0.8077	73.5568
556	0.8249	75.1283
557	0.8209	74.7628
558	0.8277	75.3810
559	0.8365	76.1849
560	0.8320	75.7780
561	0.8352	76.0627
562	0.8457	77.0172
563	0.8465	77.0984
564	0.8530	77.6833
565	0.8638	78.6668
566	0.8686	79.1047
567	0.8723	79.4409
568	0.8762	79.7979
569	0.8782	79.9805
570	0.8880	80.8762
571	0.8878	80.8577
572	0.8982	81.8041
573	0.8956	81.5701
574	0.9021	82.1569
575	0.9079	82.6900
576	0.9107	82.9403
577	0.9181	83.6173
578	0.9209	83.8686
579	0.9211	83.8848
580	0.9152	83.3557
581	0.9247	84.2142
582	0.9249	84.2323
583	0.9311	84.8004
584	0.9334	85.0131
585	0.9305	84.7430
586	0.9390	85.5158
587	0.9369	85.3263
588	0.9336	85.0265
589	0.9353	85.1811
590	0.9412	85.7233
591	0.9305	84.7473
592	0.9408	85.6864
593	0.9301	84.7043
594	0.9355	85.2023
595	0.9313	84.8218
596	0.9290	84.6101
597	0.9247	84.2153
598	0.9248	84.2271
599	0.9258	84.3195
600	0.9148	83.3166
601	0.9091	82.7992
602	0.9083	82.7198
603	0.8982	81.8006
604	0.9019	82.1377
605	0.8901	81.0642
606	0.8804	80.1783
607	0.8801	80.1572
608	0.8770	79.8725
609	0.8714	79.3653
610	0.8652	78.7940
611	0.8539	77.7690
612	0.8442	76.8868
613	0.8393	76.4399
614	0.8297	75.5651
615	0.8267	75.2884
616	0.8147	74.2020
617	0.8169	74.3959
618	0.7932	72.2364
619	0.7882	71.7872
620	0.7803	71.0694
621	0.7734	70.4348
622	0.7642	69.5956
623	0.7492	68.2310
624	0.7451	67.8588
625	0.7305	66.5327
626	0.7266	66.1782
627	0.7114	64.7906
628	0.7078	64.4629
629	0.6960	63.3886
630	0.6770	61.6577
631	0.6673	60.7758
632	0.6629	60.3713
633	0.6457	58.8047
634	0.6367	57.9871
635	0.6286	57.2527
636	0.6134	55.8614
637	0.6036	54.9750
638	0.5958	54.2647
639	0.5851	53.2890
640	0.5734	52.2225
641	0.5625	51.2327
642	0.5517	50.2502
643	0.5381	49.0048
644	0.5258	47.8830
645	0.5256	47.8715
646	0.5083	46.2966
647	0.5039	45.8881
648	0.4868	44.3390
649	0.4832	44.0116
650	0.4728	43.0625
651	0.4616	42.0379
652	0.4538	41.3289
653	0.4411	40.1694
654	0.4350	39.6169
655	0.4231	38.5381
656	0.4127	37.5854
657	0.4072	37.0856
658	0.3933	35.8158
659	0.3877	35.3127
660	0.3724	33.9144
661	0.3643	33.1783
662	0.3594	32.7290
663	0.3467	31.5712
664	0.3371	30.6981
665	0.3322	30.2534
666	0.3271	29.7864
667	0.3170	28.8662
668	0.3058	27.8486
669	0.3030	27.5992
670	0.2936	26.7357
671	0.2870	26.1395
672	0.2828	25.7569
673	0.2753	25.0768
674	0.2659	24.2188
675	0.2600	23.6782
676	0.2547	23.1974
677	0.2468	22.4794
678	0.2388	21.7462
679	0.2359	21.4862
680	0.2274	20.7059
681	0.2236	20.3675
682	0.2182	19.8725
683	0.2128	19.3810
684	0.2067	18.8274
685	0.2012	18.3272
686	0.1946	17.7232
687	0.1894	17.2478
688	0.1864	16.9799
689	0.1826	16.6340
690	0.1763	16.0583
691	0.1713	15.6003
692	0.1661	15.1305
693	0.1628	14.8283
694	0.1594	14.5210
695	0.1532	13.9549
696	0.1514	13.7888
697	0.1471	13.3972
698	0.1424	12.9726
699	0.1381	12.5771
700	0.1363	12.4157
701	0.1311	11.9377
702	0.1277	11.6269
703	0.1245	11.3363
704	0.1211	11.0317
705	0.1176	10.7062
706	0.1143	10.4107
707	0.1129	10.2804
708	0.1084	9.8685
709	0.1061	9.6638
710	0.1034	9.4158
711	0.0998	9.0863
712	0.0979	8.9126
713	0.0933	8.4937
714	0.0917	8.3513
715	0.0894	8.1453
716	0.0883	8.0453
717	0.0845	7.6916
718	0.0825	7.5107
719	0.0791	7.1998
720	0.0778	7.0901
721	0.0761	6.9262
722	0.0728	6.6319
723	0.0724	6.5942
724	0.0688	6.2680
725	0.0677	6.1657
726	0.0651	5.9301
727	0.0647	5.8942
728	0.0628	5.7165
729	0.0606	5.5227
730	0.0577	5.2554
731	0.0580	5.2814
732	0.0570	5.1895
733	0.0542	4.9396
734	0.0527	4.8002
735	0.0515	4.6932
736	0.0491	4.4677
737	0.0479	4.3631
738	0.0466	4.2447
739	0.0465	4.2306
740	0.0438	3.9929
741	0.0445	4.0485
742	0.0436	3.9749
743	0.0415	3.7776
744	0.0398	3.6228
745	0.0390	3.5499
746	0.0375	3.4122
747	0.0364	3.3108
748	0.0367	3.3457
749	0.0344	3.1313
750	0.0337	3.0663
751	0.0326	2.9652
752	0.0331	3.0141
753	0.0307	2.7953
754	0.0314	2.8598
755	0.0293	2.6704
756	0.0284	2.5832
757	0.0288	2.6266
758	0.0272	2.4793
759	0.0269	2.4506
760	0.0263	2.3984
761	0.0268	2.4397
762	0.0251	2.2868
763	0.0239	2.1753
764	0.0234	2.1273
765	0.0220	2.0065
766	0.0230	2.0908
767	0.0216	1.9665
768	0.0214	1.9535
769	0.0208	1.8902
770	0.0193	1.7590
771	0.0186	1.6964
772	0.0187	1.7068
773	0.0191	1.7380
774	0.0181	1.6492
775	0.0173	1.5719
776	0.0175	1.5895
777	0.0161	1.4682
778	0.0172	1.5631
779	0.0164	1.4898
780	0.0156	1.4191
781	0.0142	1.2938
782	0.0146	1.3270
783	0.0137	1.2465
784	0.0139	1.2660
785	0.0143	1.3039
786	0.0129	1.1760
787	0.0125	1.1394
788	0.0131	1.1926
789	0.0124	1.1248
790	0.0111	1.0092
791	0.0120	1.0885
792	0.0115	1.0464
793	0.0106	0.9674
794	0.0111	1.0090
795	0.0104	0.9447
796	0.0106	0.9617
797	0.0102	0.9288
798	0.0108	0.9847
799	0.0097	0.8816
800	0.0086	0.7877
